##  25.00000   0.00000    0   0.20000
# LAB  survey ------------------
# wanted position:  l, b, RA, DEC, and interpolated  NH
# 25.00 ;   0.00 ; 279.22 ;  -7.05 ;  0.188E+23
# nearest position: l, b, RA, DEC, and observed NH
# 25.00 ;   0.00 ; 279.22 ;  -7.05 ;  0.188E+23
# GASS III survey --------------
# NH - median within 6 arcmin radius  0.183E+23
# NH - mean within specified beam     0.183E+23
# EBHIS survey -----------------
# NH  within specified beam            0.00    
##GASS    971  datapoints: v_lsr [km/s] and T_B [K]
     399.83    -0.036
     399.01    -0.025
     398.19     0.065
     397.36    -0.192
     396.54    -0.002
     395.71     0.035
     394.89     0.110
     394.06     0.031
     393.24     0.062
     392.42     0.035
     391.59    -0.205
     390.77     0.285
     389.94     0.012
     389.12     0.111
     388.29    -0.220
     387.47    -0.079
     386.64    -0.129
     385.82    -0.049
     385.00     0.171
     384.17     0.255
     383.35     0.136
     382.52    -0.282
     381.70    -0.482
     380.87    -0.065
     380.05     0.051
     379.22     0.000
     378.40    -0.106
     377.58     0.034
     376.75     0.110
     375.93     0.013
     375.10     0.061
     374.28     0.130
     373.45     0.070
     372.63     0.135
     371.81    -0.104
     370.98    -0.052
     370.16     0.122
     369.33    -0.014
     368.51     0.133
     367.68    -0.106
     366.86     0.076
     366.03    -0.059
     365.21    -0.017
     364.39    -0.240
     363.56     0.092
     362.74     0.173
     361.91    -0.064
     361.09    -0.045
     360.26     0.084
     359.44    -0.101
     358.61    -0.072
     357.79     0.060
     356.97     0.145
     356.14     0.060
     355.32     0.019
     354.49     0.145
     353.67    -0.096
     352.84     0.154
     352.02     0.059
     351.20     0.106
     350.37    -0.294
     349.55    -0.145
     348.72     0.328
     347.90     0.047
     347.07     0.015
     346.25    -0.040
     345.42    -0.180
     344.60     0.223
     343.78    -0.099
     342.95    -0.001
     342.13    -0.108
     341.30    -0.054
     340.48    -0.062
     339.65     0.023
     338.83     0.149
     338.00    -0.061
     337.18    -0.101
     336.36     0.064
     335.53    -0.183
     334.71    -0.128
     333.88    -0.232
     333.06     0.178
     332.23    -0.220
     331.41     0.013
     330.59     0.103
     329.76    -0.066
     328.94    -0.050
     328.11    -0.055
     327.29    -0.143
     326.46     0.225
     325.64    -0.016
     324.81    -0.000
     323.99    -0.122
     323.17    -0.095
     322.34     0.007
     321.52    -0.091
     320.69    -0.068
     319.87    -0.122
     319.04     0.032
     318.22     0.168
     317.39    -0.127
     316.57     0.043
     315.75     0.011
     314.92    -0.027
     314.10     0.102
     313.27     0.026
     312.45     0.139
     311.62     0.037
     310.80    -0.185
     309.98    -0.005
     309.15    -0.064
     308.33    -0.196
     307.50     0.149
     306.68     0.011
     305.85    -0.146
     305.03     0.058
     304.20     0.034
     303.38     0.137
     302.56    -0.009
     301.73     0.121
     300.91     0.016
     300.08     0.031
     299.26     0.115
     298.43     0.185
     297.61    -0.049
     296.78    -0.194
     295.96     0.037
     295.14     0.171
     294.31     0.133
     293.49     0.063
     292.66     0.117
     291.84    -0.003
     291.01    -0.069
     290.19    -0.074
     289.37     0.247
     288.54     0.082
     287.72     0.042
     286.89     0.062
     286.07     0.001
     285.24    -0.031
     284.42    -0.266
     283.59    -0.170
     282.77    -0.129
     281.95     0.133
     281.12     0.252
     280.30    -0.024
     279.47    -0.092
     278.65    -0.134
     277.82     0.041
     277.00     0.132
     276.17    -0.029
     275.35     0.186
     274.53     0.096
     273.70     0.074
     272.88    -0.066
     272.05    -0.199
     271.23    -0.076
     270.40    -0.045
     269.58     0.032
     268.76     0.039
     267.93     0.175
     267.11    -0.079
     266.28    -0.093
     265.46    -0.126
     264.63     0.184
     263.81     0.145
     262.98     0.026
     262.16    -0.186
     261.34    -0.065
     260.51     0.011
     259.69     0.150
     258.86    -0.181
     258.04     0.102
     257.21     0.039
     256.39     0.029
     255.56    -0.029
     254.74    -0.085
     253.92    -0.056
     253.09     0.178
     252.27    -0.112
     251.44    -0.126
     250.62    -0.239
     249.79     0.136
     248.97     0.087
     248.14    -0.212
     247.32     0.042
     246.50     0.030
     245.67    -0.217
     244.85    -0.237
     244.02     0.094
     243.20    -0.242
     242.37     0.110
     241.55     0.050
     240.73    -0.025
     239.90     0.203
     239.08     0.154
     238.25     0.116
     237.43    -0.136
     236.60    -0.147
     235.78    -0.158
     234.95     0.007
     234.13     0.253
     233.31     0.026
     232.48     0.262
     231.66     0.033
     230.83     0.382
     230.01     0.026
     229.18     0.005
     228.36     0.035
     227.53    -0.093
     226.71     0.002
     225.89     0.068
     225.06    -0.104
     224.24     0.020
     223.41     0.083
     222.59     0.031
     221.76    -0.073
     220.94    -0.182
     220.12     0.019
     219.29    -0.018
     218.47     0.272
     217.64    -0.044
     216.82     0.164
     215.99     0.147
     215.17    -0.064
     214.34    -0.114
     213.52    -0.013
     212.70     0.047
     211.87    -0.172
     211.05    -0.093
     210.22     0.048
     209.40    -0.222
     208.57     0.205
     207.75    -0.054
     206.92     0.240
     206.10    -0.168
     205.28    -0.057
     204.45     0.112
     203.63    -0.020
     202.80    -0.028
     201.98     0.228
     201.15     0.001
     200.33     0.004
     199.51    -0.082
     198.68     0.240
     197.86    -0.056
     197.03    -0.106
     196.21    -0.073
     195.38    -0.117
     194.56     0.056
     193.73    -0.039
     192.91     0.047
     192.09    -0.066
     191.26    -0.085
     190.44     0.188
     189.61    -0.022
     188.79    -0.265
     187.96     0.089
     187.14     0.028
     186.31     0.039
     185.49    -0.053
     184.67     0.085
     183.84     0.168
     183.02     0.221
     182.19    -0.167
     181.37    -0.136
     180.54    -0.003
     179.72     0.085
     178.90     0.048
     178.07     0.049
     177.25     0.166
     176.42    -0.020
     175.60    -0.255
     174.77     0.008
     173.95    -0.064
     173.12    -0.039
     172.30     0.186
     171.48     0.189
     170.65     0.017
     169.83     0.048
     169.00     0.217
     168.18    -0.209
     167.35     0.400
     166.53    -0.012
     165.70    -0.125
     164.88    -0.116
     164.06    -0.020
     163.23     0.086
     162.41     0.115
     161.58    -0.048
     160.76     0.046
     159.93    -0.021
     159.11     0.233
     158.29     0.091
     157.46     0.195
     156.64     0.200
     155.81     0.259
     154.99     0.198
     154.16     0.297
     153.34     0.185
     152.51     0.246
     151.69     0.310
     150.87     0.415
     150.04     0.373
     149.22     0.419
     148.39     0.597
     147.57     0.693
     146.74     0.780
     145.92     1.020
     145.09     1.200
     144.27     1.231
     143.45     1.493
     142.62     1.708
     141.80     1.868
     140.97     2.217
     140.15     2.404
     139.32     2.936
     138.50     3.298
     137.68     3.781
     136.85     4.552
     136.03     5.321
     135.20     5.561
     134.38     6.233
     133.55     6.566
     132.73     7.199
     131.90     7.602
     131.08     8.547
     130.26     9.014
     129.43     9.241
     128.61    10.120
     127.78    10.327
     126.96    11.127
     126.13    11.234
     125.31    11.805
     124.48    12.158
     123.66    12.594
     122.84    13.306
     122.01    13.525
     121.19    14.210
     120.36    14.433
     119.54    14.907
     118.71    15.122
     117.89    16.160
     117.07    17.535
     116.24    19.603
     115.42    21.934
     114.59    24.951
     113.77    28.313
     112.94    32.774
     112.12    37.608
     111.29    43.236
     110.47    49.272
     109.65    55.122
     108.82    59.720
     108.00    63.403
     107.17    65.599
     106.35    66.689
     105.52    70.308
     104.70    74.705
     103.87    79.538
     103.05    83.335
     102.23    87.030
     101.40    90.406
     100.58    91.892
      99.75    93.824
      98.93    95.513
      98.10    96.796
      97.28    98.549
      96.46    98.665
      95.63    98.131
      94.81    97.093
      93.98    93.865
      93.16    91.632
      92.33    89.193
      91.51    86.825
      90.68    83.414
      89.86    81.018
      89.04    79.009
      88.21    75.502
      87.39    72.987
      86.56    69.966
      85.74    66.938
      84.91    63.705
      84.09    61.979
      83.26    59.788
      82.44    57.749
      81.62    56.047
      80.79    54.051
      79.97    52.890
      79.14    52.724
      78.32    53.116
      77.49    53.729
      76.67    55.325
      75.84    56.394
      75.02    57.676
      74.20    59.007
      73.37    59.169
      72.55    57.955
      71.72    55.771
      70.90    53.531
      70.07    51.197
      69.25    50.156
      68.43    48.775
      67.60    49.700
      66.78    50.900
      65.95    52.361
      65.13    53.961
      64.30    54.795
      63.48    56.882
      62.65    60.380
      61.83    63.247
      61.01    67.304
      60.18    71.493
      59.36    75.591
      58.53    78.251
      57.71    80.309
      56.88    81.626
      56.06    80.627
      55.23    78.496
      54.41    76.014
      53.59    74.429
      52.76    75.585
      51.94    78.878
      51.11    81.596
      50.29    84.156
      49.46    82.924
      48.64    79.279
      47.82    73.075
      46.99    66.966
      46.17    62.551
      45.34    62.961
      44.52    68.202
      43.69    73.023
      42.87    76.258
      42.04    76.841
      41.22    76.109
      40.40    74.350
      39.57    73.904
      38.75    73.636
      37.92    73.442
      37.10    72.325
      36.27    71.044
      35.45    69.330
      34.62    68.230
      33.80    68.071
      32.98    67.940
      32.15    66.961
      31.33    66.412
      30.50    65.927
      29.68    65.971
      28.85    66.429
      28.03    66.627
      27.21    68.004
      26.38    68.083
      25.56    68.956
      24.73    69.803
      23.91    70.023
      23.08    72.654
      22.26    74.861
      21.43    76.276
      20.61    78.744
      19.79    80.427
      18.96    80.164
      18.14    78.562
      17.31    78.091
      16.49    78.007
      15.66    76.487
      14.84    75.762
      14.01    76.026
      13.19    78.718
      12.37    79.127
      11.54    73.021
      10.72    65.942
       9.89    57.584
       9.07    48.434
       8.24    40.365
       7.42    41.349
       6.60    46.923
       5.77    49.518
       4.95    53.146
       4.12    67.311
       3.30    80.135
       2.47    84.752
       1.65    86.445
       0.82    85.314
       0.00    81.302
      -0.82    74.879
      -1.65    68.823
      -2.47    64.129
      -3.30    61.313
      -4.12    60.662
      -4.95    60.606
      -5.77    61.718
      -6.60    62.368
      -7.42    63.167
      -8.24    63.809
      -9.07    64.200
      -9.89    62.724
     -10.72    58.596
     -11.54    55.058
     -12.37    50.816
     -13.19    45.666
     -14.01    40.359
     -14.84    36.032
     -15.66    32.353
     -16.49    30.167
     -17.31    29.103
     -18.14    29.494
     -18.96    30.419
     -19.79    32.959
     -20.61    35.497
     -21.43    37.857
     -22.26    40.510
     -23.08    43.329
     -23.91    46.157
     -24.73    50.244
     -25.56    54.945
     -26.38    60.553
     -27.21    64.900
     -28.03    69.615
     -28.85    73.112
     -29.68    74.850
     -30.50    75.758
     -31.33    75.590
     -32.15    73.118
     -32.98    69.069
     -33.80    63.608
     -34.62    56.678
     -35.45    50.194
     -36.27    43.760
     -37.10    36.919
     -37.92    30.863
     -38.75    26.095
     -39.57    21.758
     -40.40    18.890
     -41.22    15.903
     -42.04    13.685
     -42.87    12.049
     -43.69    10.434
     -44.52     9.476
     -45.34     8.588
     -46.17     7.388
     -46.99     6.905
     -47.82     6.119
     -48.64     4.871
     -49.46     4.549
     -50.29     3.974
     -51.11     3.336
     -51.94     2.849
     -52.76     2.233
     -53.59     1.917
     -54.41     1.403
     -55.23     1.401
     -56.06     1.106
     -56.88     0.983
     -57.71     0.865
     -58.53     0.716
     -59.36     0.647
     -60.18     0.622
     -61.01     0.288
     -61.83     0.375
     -62.65     0.395
     -63.48     0.383
     -64.30     0.396
     -65.13     0.246
     -65.95     0.498
     -66.78     0.077
     -67.60     0.425
     -68.43     0.269
     -69.25     0.378
     -70.07     0.164
     -70.90    -0.016
     -71.72     0.135
     -72.55     0.218
     -73.37     0.134
     -74.20     0.211
     -75.02     0.294
     -75.84     0.137
     -76.67     0.256
     -77.49    -0.133
     -78.32    -0.022
     -79.14     0.338
     -79.97     0.227
     -80.79     0.154
     -81.62     0.097
     -82.44     0.413
     -83.26     0.272
     -84.09     0.355
     -84.91     0.170
     -85.74     0.223
     -86.56     0.104
     -87.39    -0.010
     -88.21     0.144
     -89.04     0.242
     -89.86     0.272
     -90.68    -0.021
     -91.51     0.191
     -92.33     0.010
     -93.16    -0.150
     -93.98     0.035
     -94.81     0.318
     -95.63     0.216
     -96.46     0.070
     -97.28     0.161
     -98.10     0.089
     -98.93     0.049
     -99.75     0.076
    -100.58     0.347
    -101.40     0.335
    -102.23     0.077
    -103.05     0.262
    -103.87    -0.100
    -104.70    -0.051
    -105.52     0.194
    -106.35    -0.200
    -107.17    -0.046
    -108.00    -0.021
    -108.82    -0.037
    -109.65     0.166
    -110.47     0.147
    -111.29     0.229
    -112.12     0.043
    -112.94     0.242
    -113.77    -0.036
    -114.59    -0.131
    -115.42     0.008
    -116.24     0.246
    -117.07     0.102
    -117.89     0.006
    -118.71    -0.095
    -119.54    -0.082
    -120.36    -0.063
    -121.19     0.042
    -122.01    -0.165
    -122.84     0.079
    -123.66     0.037
    -124.48     0.165
    -125.31     0.096
    -126.13     0.054
    -126.96     0.135
    -127.78    -0.090
    -128.61     0.261
    -129.43     0.093
    -130.26    -0.067
    -131.08     0.288
    -131.90    -0.088
    -132.73    -0.057
    -133.55     0.185
    -134.38    -0.166
    -135.20     0.180
    -136.03    -0.050
    -136.85    -0.038
    -137.68    -0.213
    -138.50     0.035
    -139.32     0.115
    -140.15     0.041
    -140.97     0.073
    -141.80    -0.222
    -142.62    -0.059
    -143.45     0.137
    -144.27     0.127
    -145.09    -0.177
    -145.92     0.262
    -146.74     0.014
    -147.57     0.105
    -148.39    -0.008
    -149.22     0.119
    -150.04     0.142
    -150.87    -0.084
    -151.69    -0.216
    -152.51    -0.128
    -153.34    -0.135
    -154.16     0.159
    -154.99    -0.050
    -155.81    -0.251
    -156.64     0.154
    -157.46    -0.025
    -158.29     0.120
    -159.11    -0.124
    -159.93     0.035
    -160.76    -0.045
    -161.58     0.217
    -162.41    -0.079
    -163.23    -0.149
    -164.06     0.009
    -164.88    -0.171
    -165.70    -0.164
    -166.53    -0.068
    -167.35     0.144
    -168.18    -0.086
    -169.00     0.099
    -169.83    -0.114
    -170.65    -0.227
    -171.48     0.152
    -172.30     0.103
    -173.12    -0.029
    -173.95    -0.142
    -174.77    -0.171
    -175.60    -0.273
    -176.42     0.051
    -177.25     0.104
    -178.07    -0.045
    -178.90     0.082
    -179.72     0.071
    -180.54    -0.078
    -181.37    -0.015
    -182.19    -0.080
    -183.02    -0.213
    -183.84     0.113
    -184.67     0.115
    -185.49     0.124
    -186.31     0.123
    -187.14     0.005
    -187.96     0.106
    -188.79    -0.100
    -189.61     0.038
    -190.44    -0.018
    -191.26     0.016
    -192.09    -0.087
    -192.91    -0.166
    -193.73     0.032
    -194.56     0.073
    -195.38    -0.181
    -196.21     0.031
    -197.03    -0.054
    -197.86     0.207
    -198.68     0.129
    -199.51    -0.185
    -200.33    -0.147
    -201.15    -0.028
    -201.98     0.004
    -202.80     0.005
    -203.63    -0.233
    -204.45    -0.280
    -205.28    -0.006
    -206.10     0.015
    -206.92    -0.113
    -207.75    -0.248
    -208.57     0.017
    -209.40    -0.021
    -210.22    -0.162
    -211.05     0.220
    -211.87    -0.055
    -212.70    -0.048
    -213.52    -0.182
    -214.34    -0.068
    -215.17    -0.066
    -215.99     0.059
    -216.82     0.082
    -217.64     0.209
    -218.47    -0.171
    -219.29     0.059
    -220.12     0.208
    -220.94    -0.156
    -221.76    -0.146
    -222.59    -0.024
    -223.41     0.063
    -224.24    -0.038
    -225.06    -0.023
    -225.89     0.091
    -226.71    -0.102
    -227.53     0.063
    -228.36    -0.005
    -229.18     0.202
    -230.01     0.012
    -230.83    -0.212
    -231.66     0.434
    -232.48     0.013
    -233.31    -0.076
    -234.13    -0.019
    -234.95     0.060
    -235.78    -0.061
    -236.60    -0.038
    -237.43    -0.048
    -238.25    -0.077
    -239.08     0.071
    -239.90     0.075
    -240.73    -0.052
    -241.55    -0.323
    -242.37     0.063
    -243.20     0.181
    -244.02     0.041
    -244.85     0.066
    -245.67     0.047
    -246.50    -0.046
    -247.32     0.067
    -248.14    -0.090
    -248.97     0.058
    -249.79     0.075
    -250.62     0.026
    -251.44    -0.066
    -252.27     0.141
    -253.09    -0.035
    -253.92     0.125
    -254.74    -0.110
    -255.56     0.082
    -256.39     0.004
    -257.21     0.205
    -258.04    -0.211
    -258.86     0.157
    -259.69     0.048
    -260.51     0.180
    -261.34     0.048
    -262.16     0.200
    -262.98     0.038
    -263.81     0.016
    -264.63     0.134
    -265.46    -0.081
    -266.28    -0.017
    -267.11     0.021
    -267.93    -0.053
    -268.76     0.112
    -269.58    -0.092
    -270.40    -0.039
    -271.23    -0.040
    -272.05    -0.107
    -272.88    -0.171
    -273.70     0.073
    -274.53    -0.111
    -275.35    -0.045
    -276.17     0.092
    -277.00    -0.018
    -277.82     0.153
    -278.65    -0.017
    -279.47    -0.080
    -280.30    -0.124
    -281.12     0.213
    -281.95    -0.001
    -282.77     0.052
    -283.59     0.021
    -284.42    -0.078
    -285.24    -0.149
    -286.07    -0.143
    -286.89     0.026
    -287.72    -0.098
    -288.54    -0.107
    -289.37     0.065
    -290.19     0.051
    -291.01    -0.079
    -291.84    -0.009
    -292.66     0.006
    -293.49    -0.016
    -294.31     0.260
    -295.14    -0.138
    -295.96     0.003
    -296.78     0.070
    -297.61     0.014
    -298.43     0.144
    -299.26     0.111
    -300.08     0.160
    -300.91    -0.000
    -301.73     0.100
    -302.56    -0.203
    -303.38    -0.085
    -304.20     0.135
    -305.03    -0.027
    -305.85     0.057
    -306.68     0.034
    -307.50    -0.124
    -308.33     0.004
    -309.15    -0.042
    -309.98     0.311
    -310.80     0.018
    -311.62    -0.097
    -312.45    -0.073
    -313.27     0.138
    -314.10     0.134
    -314.92    -0.084
    -315.75     0.161
    -316.57    -0.078
    -317.39    -0.078
    -318.22    -0.119
    -319.04    -0.058
    -319.87    -0.041
    -320.69    -0.242
    -321.52     0.102
    -322.34     0.148
    -323.17    -0.034
    -323.99     0.029
    -324.81     0.096
    -325.64     0.230
    -326.46     0.079
    -327.29    -0.050
    -328.11     0.118
    -328.94     0.011
    -329.76     0.034
    -330.59     0.153
    -331.41     0.151
    -332.23    -0.050
    -333.06     0.012
    -333.88    -0.076
    -334.71    -0.031
    -335.53    -0.017
    -336.36    -0.112
    -337.18    -0.084
    -338.00     0.191
    -338.83     0.035
    -339.65     0.177
    -340.48    -0.086
    -341.30    -0.239
    -342.13    -0.061
    -342.95     0.130
    -343.78    -0.054
    -344.60     0.202
    -345.42    -0.129
    -346.25    -0.077
    -347.07     0.019
    -347.90     0.083
    -348.72     0.029
    -349.55     0.031
    -350.37     0.045
    -351.20    -0.035
    -352.02     0.164
    -352.84    -0.038
    -353.67    -0.058
    -354.49     0.015
    -355.32     0.079
    -356.14    -0.161
    -356.97    -0.231
    -357.79    -0.090
    -358.61    -0.023
    -359.44    -0.051
    -360.26    -0.177
    -361.09    -0.210
    -361.91    -0.032
    -362.74     0.164
    -363.56     0.147
    -364.39     0.038
    -365.21    -0.110
    -366.03     0.152
    -366.86    -0.032
    -367.68    -0.133
    -368.51    -0.027
    -369.33     0.197
    -370.16    -0.057
    -370.98    -0.047
    -371.81     0.043
    -372.63    -0.061
    -373.45    -0.037
    -374.28    -0.099
    -375.10     0.174
    -375.93     0.087
    -376.75     0.128
    -377.58    -0.064
    -378.40    -0.209
    -379.22     0.177
    -380.05     0.093
    -380.87     0.147
    -381.70     0.046
    -382.52    -0.017
    -383.35    -0.043
    -384.17    -0.073
    -385.00    -0.221
    -385.82    -0.221
    -386.64    -0.146
    -387.47    -0.020
    -388.29     0.083
    -389.12    -0.058
    -389.94    -0.258
    -390.77     0.107
    -391.59     0.074
    -392.42     0.140
    -393.24    -0.039
    -394.06    -0.057
    -394.89    -0.091
    -395.71    -0.106
    -396.54     0.061
    -397.36     0.175
    -398.19    -0.005
    -399.01    -0.230
    -399.83    -0.162
